Dataset Au 4f Au #1 a:79(rrt)
Dwell Time (s)	0.100000
Number of sweeps	1
Kinetic Energy(eV)	Binding Energy(eV)	Intensity(cps)	Transmission Value
1394.190000	92.500000	22820.000000	1.481856
1394.215000	92.475000	22480.000000	1.481830
1394.240000	92.450000	22800.000000	1.481804
1394.265000	92.425000	22350.000000	1.481778
1394.290000	92.400000	22720.000000	1.481752
1394.315000	92.375000	22980.000000	1.481726
1394.340000	92.350000	22520.000000	1.481700
1394.365000	92.325000	22630.000000	1.481674
1394.390000	92.300000	22100.000000	1.481648
1394.415000	92.275000	21950.000000	1.481622
1394.440000	92.250000	22640.000000	1.481596
1394.465000	92.225000	22660.000000	1.481570
1394.490000	92.200000	22240.000000	1.481544
1394.515000	92.175000	22220.000000	1.481518
1394.540000	92.150000	22190.000000	1.481492
1394.565000	92.125000	22070.000000	1.481466
1394.590000	92.100000	23130.000000	1.481440
1394.615000	92.075000	22920.000000	1.481414
1394.640000	92.050000	23590.000000	1.481388
1394.665000	92.025000	22930.000000	1.481362
1394.690000	92.000000	22110.000000	1.481335
1394.715000	91.975000	21940.000000	1.481309
1394.740000	91.950000	22120.000000	1.481283
1394.765000	91.925000	22520.000000	1.481257
1394.790000	91.900000	22300.000000	1.481231
1394.815000	91.875000	22350.000000	1.481205
1394.840000	91.850000	22450.000000	1.481179
1394.865000	91.825000	22680.000000	1.481153
1394.890000	91.800000	22350.000000	1.481127
1394.915000	91.775000	23210.000000	1.481101
1394.940000	91.750000	23290.000000	1.481075
1394.965000	91.725000	23230.000000	1.481049
1394.990000	91.700000	23610.000000	1.481023
1395.015000	91.675000	23260.000000	1.480997
1395.040000	91.650000	23270.000000	1.480971
1395.065000	91.625000	23550.000000	1.480945
1395.090000	91.600000	23760.000000	1.480919
1395.115000	91.575000	23540.000000	1.480893
1395.140000	91.550000	23670.000000	1.480867
1395.165000	91.525000	23700.000000	1.480841
1395.190000	91.500000	23920.000000	1.480815
1395.215000	91.475000	23450.000000	1.480789
1395.240000	91.450000	23850.000000	1.480763
1395.265000	91.425000	23810.000000	1.480737
1395.290000	91.400000	24750.000000	1.480711
1395.315000	91.375000	25000.000000	1.480685
1395.340000	91.350000	24620.000000	1.480658
1395.365000	91.325000	24420.000000	1.480632
1395.390000	91.300000	24440.000000	1.480606
1395.415000	91.275000	24310.000000	1.480580
1395.440000	91.250000	24250.000000	1.480554
1395.465000	91.225000	24710.000000	1.480528
1395.490000	91.200000	24050.000000	1.480502
1395.515000	91.175000	24080.000000	1.480476
1395.540000	91.150000	25060.000000	1.480450
1395.565000	91.125000	24600.000000	1.480424
1395.590000	91.100000	25180.000000	1.480398
1395.615000	91.075000	25920.000000	1.480372
1395.640000	91.050000	25470.000000	1.480346
1395.665000	91.025000	24770.000000	1.480320
1395.690000	91.000000	25680.000000	1.480294
1395.715000	90.975000	26120.000000	1.480268
1395.740000	90.950000	26120.000000	1.480242
1395.765000	90.925000	26370.000000	1.480216
1395.790000	90.900000	26330.000000	1.480190
1395.815000	90.875000	26420.000000	1.480164
1395.840000	90.850000	26350.000000	1.480138
1395.865000	90.825000	25640.000000	1.480112
1395.890000	90.800000	26330.000000	1.480086
1395.915000	90.775000	26490.000000	1.480060
1395.940000	90.750000	26570.000000	1.480034
1395.965000	90.725000	26540.000000	1.480007
1395.990000	90.700000	26240.000000	1.479981
1396.015000	90.675000	26340.000000	1.479955
1396.040000	90.650000	26490.000000	1.479929
1396.065000	90.625000	27360.000000	1.479903
1396.090000	90.600000	26300.000000	1.479877
1396.115000	90.575000	26230.000000	1.479851
1396.140000	90.550000	27170.000000	1.479825
1396.165000	90.525000	28010.000000	1.479799
1396.190000	90.500000	27060.000000	1.479773
1396.215000	90.475000	27500.000000	1.479747
1396.240000	90.450000	27180.000000	1.479721
1396.265000	90.425000	27490.000000	1.479695
1396.290000	90.400000	27130.000000	1.479669
1396.315000	90.375000	26650.000000	1.479643
1396.340000	90.350000	27320.000000	1.479617
1396.365000	90.325000	27240.000000	1.479591
1396.390000	90.300000	27730.000000	1.479565
1396.415000	90.275000	28570.000000	1.479539
1396.440000	90.250000	27790.000000	1.479513
1396.465000	90.225000	27810.000000	1.479487
1396.490000	90.200000	27770.000000	1.479461
1396.515000	90.175000	27710.000000	1.479435
1396.540000	90.150000	27720.000000	1.479409
1396.565000	90.125000	27590.000000	1.479383
1396.590000	90.100000	27980.000000	1.479357
1396.615000	90.075000	28760.000000	1.479330
1396.640000	90.050000	28740.000000	1.479304
1396.665000	90.025000	28510.000000	1.479278
1396.690000	90.000000	28040.000000	1.479252
1396.715000	89.975000	28420.000000	1.479226
1396.740000	89.950000	28420.000000	1.479200
1396.765000	89.925000	28530.000000	1.479174
1396.790000	89.900000	28040.000000	1.479148
1396.815000	89.875000	28120.000000	1.479122
1396.840000	89.850000	28550.000000	1.479096
1396.865000	89.825000	28520.000000	1.479070
1396.890000	89.800000	28400.000000	1.479044
1396.915000	89.775000	28810.000000	1.479018
1396.940000	89.750000	28530.000000	1.478992
1396.965000	89.725000	28300.000000	1.478966
1396.990000	89.700000	28190.000000	1.478940
1397.015000	89.675000	27520.000000	1.478914
1397.040000	89.650000	28660.000000	1.478888
1397.065000	89.625000	28420.000000	1.478862
1397.090000	89.600000	28440.000000	1.478836
1397.115000	89.575000	28590.000000	1.478810
1397.140000	89.550000	28580.000000	1.478784
1397.165000	89.525000	29170.000000	1.478758
1397.190000	89.500000	28770.000000	1.478732
1397.215000	89.475000	28210.000000	1.478706
1397.240000	89.450000	28430.000000	1.478679
1397.265000	89.425000	28080.000000	1.478653
1397.290000	89.400000	29060.000000	1.478627
1397.315000	89.375000	29800.000000	1.478601
1397.340000	89.350000	30130.000000	1.478575
1397.365000	89.325000	29420.000000	1.478549
1397.390000	89.300000	30110.000000	1.478523
1397.415000	89.275000	29990.000000	1.478497
1397.440000	89.250000	30120.000000	1.478471
1397.465000	89.225000	30660.000000	1.478445
1397.490000	89.200000	30980.000000	1.478419
1397.515000	89.175000	31290.000000	1.478393
1397.540000	89.150000	30820.000000	1.478367
1397.565000	89.125000	31020.000000	1.478341
1397.590000	89.100000	31490.000000	1.478315
1397.615000	89.075000	32630.000000	1.478289
1397.640000	89.050000	33410.000000	1.478263
1397.665000	89.025000	32970.000000	1.478237
1397.690000	89.000000	32850.000000	1.478211
1397.715000	88.975000	33960.000000	1.478185
1397.740000	88.950000	34360.000000	1.478159
1397.765000	88.925000	34730.000000	1.478133
1397.790000	88.900000	35760.000000	1.478107
1397.815000	88.875000	36640.000000	1.478081
1397.840000	88.850000	37240.000000	1.478055
1397.865000	88.825000	38540.000000	1.478029
1397.890000	88.800000	39330.000000	1.478002
1397.915000	88.775000	40270.000000	1.477976
1397.940000	88.750000	40940.000000	1.477950
1397.965000	88.725000	41550.000000	1.477924
1397.990000	88.700000	43230.000000	1.477898
1398.015000	88.675000	45290.000000	1.477872
1398.040000	88.650000	46750.000000	1.477846
1398.065000	88.625000	48350.000000	1.477820
1398.090000	88.600000	49080.000000	1.477794
1398.115000	88.575000	49530.000000	1.477768
1398.140000	88.550000	51890.000000	1.477742
1398.165000	88.525000	53650.000000	1.477716
1398.190000	88.500000	55200.000000	1.477690
1398.215000	88.475000	58190.000000	1.477664
1398.240000	88.450000	60540.000000	1.477638
1398.265000	88.425000	63240.000000	1.477612
1398.290000	88.400000	65790.000000	1.477586
1398.315000	88.375000	67330.000000	1.477560
1398.340000	88.350000	70970.000000	1.477534
1398.365000	88.325000	75490.000000	1.477508
1398.390000	88.300000	78340.000000	1.477482
1398.415000	88.275000	82070.000000	1.477456
1398.440000	88.250000	85520.000000	1.477430
1398.465000	88.225000	90410.000000	1.477404
1398.490000	88.200000	94260.000000	1.477378
1398.515000	88.175000	98660.000000	1.477351
1398.540000	88.150000	104240.000000	1.477325
1398.565000	88.125000	108200.000000	1.477299
1398.590000	88.100000	114310.000000	1.477273
1398.615000	88.075000	120580.000000	1.477247
1398.640000	88.050000	124520.000000	1.477221
1398.665000	88.025000	130840.000000	1.477195
1398.690000	88.000000	137690.000000	1.477169
1398.715000	87.975000	145300.000000	1.477143
1398.740000	87.950000	152400.000000	1.477117
1398.765000	87.925000	160470.000000	1.477091
1398.790000	87.900000	170250.000000	1.477065
1398.815000	87.875000	176770.000000	1.477039
1398.840000	87.850000	183600.000000	1.477013
1398.865000	87.825000	192110.000000	1.476987
1398.890000	87.800000	200010.000000	1.476961
1398.915000	87.775000	207080.000000	1.476935
1398.940000	87.750000	216220.000000	1.476909
1398.965000	87.725000	222270.000000	1.476883
1398.990000	87.700000	228200.000000	1.476857
1399.015000	87.675000	234190.000000	1.476831
1399.040000	87.650000	241520.000000	1.476805
1399.065000	87.625000	243070.000000	1.476779
1399.090000	87.600000	246090.000000	1.476753
1399.115000	87.575000	248650.000000	1.476727
1399.140000	87.550000	246220.000000	1.476701
1399.165000	87.525000	246930.000000	1.476674
1399.190000	87.500000	245580.000000	1.476648
1399.215000	87.475000	241210.000000	1.476622
1399.240000	87.450000	236090.000000	1.476596
1399.265000	87.425000	231310.000000	1.476570
1399.290000	87.400000	224200.000000	1.476544
1399.315000	87.375000	217510.000000	1.476518
1399.340000	87.350000	207440.000000	1.476492
1399.365000	87.325000	199840.000000	1.476466
1399.390000	87.300000	187040.000000	1.476440
1399.415000	87.275000	178910.000000	1.476414
1399.440000	87.250000	166990.000000	1.476388
1399.465000	87.225000	157130.000000	1.476362
1399.490000	87.200000	147210.000000	1.476336
1399.515000	87.175000	136860.000000	1.476310
1399.540000	87.150000	128570.000000	1.476284
1399.565000	87.125000	118560.000000	1.476258
1399.590000	87.100000	108460.000000	1.476232
1399.615000	87.075000	102190.000000	1.476206
1399.640000	87.050000	95930.000000	1.476180
1399.665000	87.025000	88840.000000	1.476154
1399.690000	87.000000	82200.000000	1.476128
1399.715000	86.975000	77290.000000	1.476102
1399.740000	86.950000	73560.000000	1.476076
1399.765000	86.925000	68840.000000	1.476050
1399.790000	86.900000	63830.000000	1.476023
1399.815000	86.875000	60100.000000	1.475997
1399.840000	86.850000	57470.000000	1.475971
1399.865000	86.825000	54460.000000	1.475945
1399.890000	86.800000	51800.000000	1.475919
1399.915000	86.775000	48940.000000	1.475893
1399.940000	86.750000	47820.000000	1.475867
1399.965000	86.725000	46530.000000	1.475841
1399.990000	86.700000	44320.000000	1.475815
1400.015000	86.675000	42220.000000	1.475789
1400.040000	86.650000	41480.000000	1.475763
1400.065000	86.625000	39810.000000	1.475737
1400.090000	86.600000	39550.000000	1.475711
1400.115000	86.575000	37880.000000	1.475685
1400.140000	86.550000	36310.000000	1.475659
1400.165000	86.525000	36670.000000	1.475633
1400.190000	86.500000	35570.000000	1.475607
1400.215000	86.475000	34350.000000	1.475581
1400.240000	86.450000	34160.000000	1.475555
1400.265000	86.425000	33540.000000	1.475529
1400.290000	86.400000	33020.000000	1.475503
1400.315000	86.375000	32060.000000	1.475477
1400.340000	86.350000	32860.000000	1.475451
1400.365000	86.325000	33200.000000	1.475425
1400.390000	86.300000	32090.000000	1.475399
1400.415000	86.275000	31010.000000	1.475373
1400.440000	86.250000	30560.000000	1.475346
1400.465000	86.225000	30760.000000	1.475320
1400.490000	86.200000	30660.000000	1.475294
1400.515000	86.175000	29220.000000	1.475268
1400.540000	86.150000	28200.000000	1.475242
1400.565000	86.125000	28770.000000	1.475216
1400.590000	86.100000	28580.000000	1.475190
1400.615000	86.075000	28240.000000	1.475164
1400.640000	86.050000	28760.000000	1.475138
1400.665000	86.025000	28210.000000	1.475112
1400.690000	86.000000	28240.000000	1.475086
1400.715000	85.975000	27240.000000	1.475060
1400.740000	85.950000	27110.000000	1.475034
1400.765000	85.925000	27580.000000	1.475008
1400.790000	85.900000	27100.000000	1.474982
1400.815000	85.875000	27670.000000	1.474956
1400.840000	85.850000	27750.000000	1.474930
1400.865000	85.825000	27300.000000	1.474904
1400.890000	85.800000	27190.000000	1.474878
1400.915000	85.775000	27170.000000	1.474852
1400.940000	85.750000	26390.000000	1.474826
1400.965000	85.725000	27080.000000	1.474800
1400.990000	85.700000	27090.000000	1.474774
1401.015000	85.675000	27070.000000	1.474748
1401.040000	85.650000	26980.000000	1.474722
1401.065000	85.625000	27350.000000	1.474695
1401.090000	85.600000	27850.000000	1.474669
1401.115000	85.575000	27850.000000	1.474643
1401.140000	85.550000	28130.000000	1.474617
1401.165000	85.525000	28150.000000	1.474591
1401.190000	85.500000	27810.000000	1.474565
1401.215000	85.475000	28440.000000	1.474539
1401.240000	85.450000	28380.000000	1.474513
1401.265000	85.425000	29040.000000	1.474487
1401.290000	85.400000	29150.000000	1.474461
1401.315000	85.375000	29590.000000	1.474435
1401.340000	85.350000	29350.000000	1.474409
1401.365000	85.325000	29190.000000	1.474383
1401.390000	85.300000	31040.000000	1.474357
1401.415000	85.275000	31980.000000	1.474331
1401.440000	85.250000	31830.000000	1.474305
1401.465000	85.225000	32770.000000	1.474279
1401.490000	85.200000	33290.000000	1.474253
1401.515000	85.175000	33770.000000	1.474227
1401.540000	85.150000	33690.000000	1.474201
1401.565000	85.125000	36040.000000	1.474175
1401.590000	85.100000	36650.000000	1.474149
1401.615000	85.075000	38340.000000	1.474123
1401.640000	85.050000	39560.000000	1.474097
1401.665000	85.025000	40940.000000	1.474071
1401.690000	85.000000	41990.000000	1.474044
1401.715000	84.975000	45130.000000	1.474018
1401.740000	84.950000	46000.000000	1.473992
1401.765000	84.925000	46860.000000	1.473966
1401.790000	84.900000	50100.000000	1.473940
1401.815000	84.875000	51310.000000	1.473914
1401.840000	84.850000	54680.000000	1.473888
1401.865000	84.825000	56350.000000	1.473862
1401.890000	84.800000	57930.000000	1.473836
1401.915000	84.775000	62120.000000	1.473810
1401.940000	84.750000	64590.000000	1.473784
1401.965000	84.725000	68090.000000	1.473758
1401.990000	84.700000	72260.000000	1.473732
1402.015000	84.675000	76440.000000	1.473706
1402.040000	84.650000	78270.000000	1.473680
1402.065000	84.625000	82100.000000	1.473654
1402.090000	84.600000	86970.000000	1.473628
1402.115000	84.575000	92710.000000	1.473602
1402.140000	84.550000	98550.000000	1.473576
1402.165000	84.525000	102340.000000	1.473550
1402.190000	84.500000	109150.000000	1.473524
1402.215000	84.475000	114840.000000	1.473498
1402.240000	84.450000	121010.000000	1.473472
1402.265000	84.425000	129290.000000	1.473446
1402.290000	84.400000	137360.000000	1.473420
1402.315000	84.375000	143500.000000	1.473394
1402.340000	84.350000	150090.000000	1.473367
1402.365000	84.325000	159360.000000	1.473341
1402.390000	84.300000	168260.000000	1.473315
1402.415000	84.275000	179540.000000	1.473289
1402.440000	84.250000	187890.000000	1.473263
1402.465000	84.225000	199690.000000	1.473237
1402.490000	84.200000	210300.000000	1.473211
1402.515000	84.175000	218690.000000	1.473185
1402.540000	84.150000	228850.000000	1.473159
1402.565000	84.125000	240360.000000	1.473133
1402.590000	84.100000	251190.000000	1.473107
1402.615000	84.075000	260230.000000	1.473081
1402.640000	84.050000	270270.000000	1.473055
1402.665000	84.025000	277600.000000	1.473029
1402.690000	84.000000	284160.000000	1.473003
1402.715000	83.975000	292060.000000	1.472977
1402.740000	83.950000	298160.000000	1.472951
1402.765000	83.925000	302030.000000	1.472925
1402.790000	83.900000	307340.000000	1.472899
1402.815000	83.875000	310210.000000	1.472873
1402.840000	83.850000	306630.000000	1.472847
1402.865000	83.825000	305380.000000	1.472821
1402.890000	83.800000	300650.000000	1.472795
1402.915000	83.775000	292330.000000	1.472769
1402.940000	83.750000	284490.000000	1.472743
1402.965000	83.725000	276200.000000	1.472716
1402.990000	83.700000	267820.000000	1.472690
1403.015000	83.675000	254210.000000	1.472664
1403.040000	83.650000	240670.000000	1.472638
1403.065000	83.625000	228830.000000	1.472612
1403.090000	83.600000	214110.000000	1.472586
1403.115000	83.575000	201230.000000	1.472560
1403.140000	83.550000	186530.000000	1.472534
1403.165000	83.525000	172660.000000	1.472508
1403.190000	83.500000	158400.000000	1.472482
1403.215000	83.475000	144880.000000	1.472456
1403.240000	83.450000	133860.000000	1.472430
1403.265000	83.425000	121700.000000	1.472404
1403.290000	83.400000	112190.000000	1.472378
1403.315000	83.375000	101220.000000	1.472352
1403.340000	83.350000	92850.000000	1.472326
1403.365000	83.325000	85540.000000	1.472300
1403.390000	83.300000	77880.000000	1.472274
1403.415000	83.275000	71140.000000	1.472248
1403.440000	83.250000	65070.000000	1.472222
1403.465000	83.225000	59620.000000	1.472196
1403.490000	83.200000	55730.000000	1.472170
1403.515000	83.175000	51800.000000	1.472144
1403.540000	83.150000	48180.000000	1.472118
1403.565000	83.125000	43610.000000	1.472092
1403.590000	83.100000	40800.000000	1.472066
1403.615000	83.075000	38750.000000	1.472039
1403.640000	83.050000	35360.000000	1.472013
1403.665000	83.025000	33260.000000	1.471987
1403.690000	83.000000	32370.000000	1.471961
1403.715000	82.975000	31140.000000	1.471935
1403.740000	82.950000	29350.000000	1.471909
1403.765000	82.925000	26970.000000	1.471883
1403.790000	82.900000	25940.000000	1.471857
1403.815000	82.875000	25300.000000	1.471831
1403.840000	82.850000	24260.000000	1.471805
1403.865000	82.825000	22640.000000	1.471779
1403.890000	82.800000	20760.000000	1.471753
1403.915000	82.775000	19970.000000	1.471727
1403.940000	82.750000	19360.000000	1.471701
1403.965000	82.725000	19140.000000	1.471675
1403.990000	82.700000	18630.000000	1.471649
1404.015000	82.675000	17890.000000	1.471623
1404.040000	82.650000	16690.000000	1.471597
1404.065000	82.625000	16730.000000	1.471571
1404.090000	82.600000	16740.000000	1.471545
1404.115000	82.575000	15290.000000	1.471519
1404.140000	82.550000	15390.000000	1.471493
1404.165000	82.525000	15160.000000	1.471467
1404.190000	82.500000	14170.000000	1.471441
1404.215000	82.475000	13720.000000	1.471415
1404.240000	82.450000	13670.000000	1.471388
1404.265000	82.425000	13140.000000	1.471362
1404.290000	82.400000	12670.000000	1.471336
1404.315000	82.375000	12880.000000	1.471310
1404.340000	82.350000	12270.000000	1.471284
1404.365000	82.325000	12090.000000	1.471258
1404.390000	82.300000	11880.000000	1.471232
1404.415000	82.275000	12000.000000	1.471206
1404.440000	82.250000	11630.000000	1.471180
1404.465000	82.225000	11620.000000	1.471154
1404.490000	82.200000	10980.000000	1.471128
1404.515000	82.175000	11200.000000	1.471102
1404.540000	82.150000	10860.000000	1.471076
1404.565000	82.125000	10700.000000	1.471050
1404.590000	82.100000	10490.000000	1.471024
1404.615000	82.075000	10390.000000	1.470998
1404.640000	82.050000	9930.000000	1.470972
1404.665000	82.025000	9640.000000	1.470946
1404.690000	82.000000	9780.000000	1.470920
1404.715000	81.975000	9500.000000	1.470894
1404.740000	81.950000	9400.000000	1.470868
1404.765000	81.925000	9670.000000	1.470842
1404.790000	81.900000	9510.000000	1.470816
1404.815000	81.875000	9600.000000	1.470790
1404.840000	81.850000	9570.000000	1.470764
1404.865000	81.825000	9600.000000	1.470738
1404.890000	81.800000	9400.000000	1.470711
1404.915000	81.775000	8820.000000	1.470685
1404.940000	81.750000	8310.000000	1.470659
1404.965000	81.725000	8750.000000	1.470633
1404.990000	81.700000	8480.000000	1.470607
1405.015000	81.675000	8510.000000	1.470581
1405.040000	81.650000	8530.000000	1.470555
1405.065000	81.625000	8400.000000	1.470529
1405.090000	81.600000	8330.000000	1.470503
1405.115000	81.575000	8380.000000	1.470477
1405.140000	81.550000	8290.000000	1.470451
1405.165000	81.525000	8580.000000	1.470425
1405.190000	81.500000	8310.000000	1.470399
1405.215000	81.475000	7700.000000	1.470373
1405.240000	81.450000	8240.000000	1.470347
1405.265000	81.425000	7850.000000	1.470321
1405.290000	81.400000	7640.000000	1.470295
1405.315000	81.375000	7710.000000	1.470269
1405.340000	81.350000	7550.000000	1.470243
1405.365000	81.325000	7980.000000	1.470217
1405.390000	81.300000	7470.000000	1.470191
1405.415000	81.275000	7490.000000	1.470165
1405.440000	81.250000	7540.000000	1.470139
1405.465000	81.225000	7560.000000	1.470113
1405.490000	81.200000	7860.000000	1.470087
1405.515000	81.175000	7400.000000	1.470060
1405.540000	81.150000	7400.000000	1.470034
1405.565000	81.125000	7510.000000	1.470008
1405.590000	81.100000	7670.000000	1.469982
1405.615000	81.075000	7690.000000	1.469956
1405.640000	81.050000	6670.000000	1.469930
1405.665000	81.025000	7010.000000	1.469904
1405.690000	81.000000	6830.000000	1.469878
1405.715000	80.975000	6980.000000	1.469852
1405.740000	80.950000	7220.000000	1.469826
1405.765000	80.925000	7140.000000	1.469800
1405.790000	80.900000	7300.000000	1.469774
1405.815000	80.875000	6930.000000	1.469748
1405.840000	80.850000	7050.000000	1.469722
1405.865000	80.825000	6970.000000	1.469696
1405.890000	80.800000	7070.000000	1.469670
1405.915000	80.775000	6830.000000	1.469644
1405.940000	80.750000	6850.000000	1.469618
1405.965000	80.725000	7110.000000	1.469592
1405.990000	80.700000	6960.000000	1.469566
1406.015000	80.675000	7070.000000	1.469540
1406.040000	80.650000	6500.000000	1.469514
1406.065000	80.625000	7250.000000	1.469488
1406.090000	80.600000	6780.000000	1.469462
1406.115000	80.575000	6730.000000	1.469436
1406.140000	80.550000	6670.000000	1.469410
1406.165000	80.525000	6650.000000	1.469383
1406.190000	80.500000	6510.000000	1.469357
1406.215000	80.475000	6360.000000	1.469331
1406.240000	80.450000	6520.000000	1.469305
1406.265000	80.425000	6320.000000	1.469279
1406.290000	80.400000	6720.000000	1.469253
1406.315000	80.375000	7030.000000	1.469227
1406.340000	80.350000	6980.000000	1.469201
1406.365000	80.325000	6660.000000	1.469175
1406.390000	80.300000	6270.000000	1.469149
1406.415000	80.275000	6180.000000	1.469123
1406.440000	80.250000	6220.000000	1.469097
1406.465000	80.225000	6380.000000	1.469071
1406.490000	80.200000	6480.000000	1.469045
1406.515000	80.175000	6420.000000	1.469019
1406.540000	80.150000	6190.000000	1.468993
1406.565000	80.125000	6330.000000	1.468967
1406.590000	80.100000	6050.000000	1.468941
1406.615000	80.075000	6020.000000	1.468915
1406.640000	80.050000	6230.000000	1.468889
1406.665000	80.025000	6430.000000	1.468863
1406.690000	80.000000	6320.000000	1.468837
1406.715000	79.975000	6460.000000	1.468811
1406.740000	79.950000	6160.000000	1.468785
1406.765000	79.925000	6280.000000	1.468759
1406.790000	79.900000	6320.000000	1.468732
1406.815000	79.875000	6170.000000	1.468706
1406.840000	79.850000	6000.000000	1.468680
1406.865000	79.825000	6160.000000	1.468654
1406.890000	79.800000	6010.000000	1.468628
1406.915000	79.775000	6190.000000	1.468602
1406.940000	79.750000	6420.000000	1.468576
1406.965000	79.725000	5960.000000	1.468550
1406.990000	79.700000	6490.000000	1.468524
1407.015000	79.675000	6170.000000	1.468498
1407.040000	79.650000	6220.000000	1.468472
1407.065000	79.625000	6010.000000	1.468446
1407.090000	79.600000	6190.000000	1.468420
1407.115000	79.575000	6210.000000	1.468394
1407.140000	79.550000	5800.000000	1.468368
1407.165000	79.525000	6140.000000	1.468342
1407.190000	79.500000	6090.000000	1.468316
1407.215000	79.475000	6250.000000	1.468290
1407.240000	79.450000	6080.000000	1.468264
1407.265000	79.425000	6140.000000	1.468238
1407.290000	79.400000	6480.000000	1.468212
1407.315000	79.375000	5900.000000	1.468186
1407.340000	79.350000	6040.000000	1.468160
1407.365000	79.325000	6120.000000	1.468134
1407.390000	79.300000	5680.000000	1.468108
1407.415000	79.275000	6090.000000	1.468082
1407.440000	79.250000	6010.000000	1.468055
1407.465000	79.225000	5960.000000	1.468029
1407.490000	79.200000	5970.000000	1.468003
1407.515000	79.175000	5870.000000	1.467977
1407.540000	79.150000	6330.000000	1.467951
1407.565000	79.125000	6170.000000	1.467925
1407.590000	79.100000	6250.000000	1.467899
1407.615000	79.075000	6220.000000	1.467873
1407.640000	79.050000	5720.000000	1.467847
1407.665000	79.025000	6200.000000	1.467821
1407.690000	79.000000	5670.000000	1.467795
1407.715000	78.975000	5620.000000	1.467769
1407.740000	78.950000	5710.000000	1.467743
1407.765000	78.925000	6320.000000	1.467717
1407.790000	78.900000	6220.000000	1.467691
1407.815000	78.875000	6110.000000	1.467665
1407.840000	78.850000	5820.000000	1.467639
1407.865000	78.825000	5870.000000	1.467613
1407.890000	78.800000	6020.000000	1.467587
1407.915000	78.775000	6020.000000	1.467561
1407.940000	78.750000	5800.000000	1.467535
1407.965000	78.725000	5990.000000	1.467509
1407.990000	78.700000	6200.000000	1.467483
1408.015000	78.675000	5980.000000	1.467457
1408.040000	78.650000	6050.000000	1.467431
1408.065000	78.625000	6170.000000	1.467404
1408.090000	78.600000	5730.000000	1.467378
1408.115000	78.575000	6220.000000	1.467352
1408.140000	78.550000	6030.000000	1.467326
1408.165000	78.525000	6000.000000	1.467300
1408.190000	78.500000	6150.000000	1.467274
1408.215000	78.475000	6170.000000	1.467248
1408.240000	78.450000	6040.000000	1.467222
1408.265000	78.425000	5690.000000	1.467196
1408.290000	78.400000	6110.000000	1.467170
1408.315000	78.375000	5800.000000	1.467144
1408.340000	78.350000	5680.000000	1.467118
1408.365000	78.325000	6060.000000	1.467092
1408.390000	78.300000	5900.000000	1.467066
1408.415000	78.275000	5390.000000	1.467040
1408.440000	78.250000	5740.000000	1.467014
1408.465000	78.225000	6160.000000	1.466988
1408.490000	78.200000	5750.000000	1.466962
1408.515000	78.175000	5810.000000	1.466936
1408.540000	78.150000	6140.000000	1.466910
1408.565000	78.125000	5910.000000	1.466884
1408.590000	78.100000	6360.000000	1.466858
1408.615000	78.075000	5920.000000	1.466832
1408.640000	78.050000	6390.000000	1.466806
1408.665000	78.025000	6170.000000	1.466780
1408.690000	78.000000	6070.000000	1.466754
1408.715000	77.975000	5820.000000	1.466727
1408.740000	77.950000	6120.000000	1.466701
1408.765000	77.925000	6020.000000	1.466675
1408.790000	77.900000	6170.000000	1.466649
1408.815000	77.875000	5790.000000	1.466623
1408.840000	77.850000	5630.000000	1.466597
1408.865000	77.825000	5610.000000	1.466571
1408.890000	77.800000	5950.000000	1.466545
1408.915000	77.775000	6000.000000	1.466519
1408.940000	77.750000	5830.000000	1.466493
1408.965000	77.725000	5630.000000	1.466467
1408.990000	77.700000	5950.000000	1.466441
1409.015000	77.675000	6050.000000	1.466415
1409.040000	77.650000	6550.000000	1.466389
1409.065000	77.625000	6020.000000	1.466363
1409.090000	77.600000	5950.000000	1.466337
1409.115000	77.575000	5890.000000	1.466311
1409.140000	77.550000	5950.000000	1.466285
1409.165000	77.525000	5880.000000	1.466259
1409.190000	77.500000	5690.000000	1.466233


